Kad
Integration time [ms]: 150,000
Averaging Nr. [scans]: 1
Smoothing Nr. [pixels]: 0
Data measured with spectrometer [name]: 1804341U2
Wave   ;Sample   ;Dark     ;Reference;Scope Corrected for Dark
[nm]   ;[counts] ;[counts] ;[counts] 

 317,76;   75,000;  257,000;    0,000;-182,00000
 317,78;   42,000;  126,000;    0,000;-84,00000
 317,80;  -91,000;    1,000;    0,000;-92,00000
 317,82;    7,000;  805,000;    0,000;-798,00000
 317,84;   39,000; -108,000;    0,000;147,00000
 317,86;  -27,000; -150,000;    0,000;123,00000
 317,88;  -51,000;  311,000;    0,000;-362,00000
 317,90;   48,000;   40,000;    0,000; 8,00000
 317,92;  -24,000; -277,000;    0,000;253,00000
 317,94;  147,000;  112,000;    0,000;35,00000
 317,96;  -21,000;   81,000;    0,000;-102,00000
 317,98;   20,000;  -43,000;    0,000;63,00000
 318,00;  -20,000; -338,000;    0,000;318,00000
 318,02;   63,000; -123,000;    0,000;186,00000
 318,04;  -54,000; -244,000;    0,000;190,00000
 318,05;  -53,000;  190,000;    0,000;-243,00000
 318,07;   90,000; -229,000;    0,000;319,00000
 318,09;  113,000;   23,000;    0,000;90,00000
 318,11;   74,000;  723,000;    0,000;-649,00000
 318,13;  -26,000;  340,000;    0,000;-366,00000
 318,15;   12,000;  105,000;    0,000;-93,00000
 318,17;  -88,000; -259,000;    0,000;171,00000
 318,19;   47,000;  154,000;    0,000;-107,00000
 318,21;   70,000;  117,000;    0,000;-47,00000
 318,23;   41,000; -120,000;    0,000;161,00000
 318,25; -125,000; -164,000;    0,000;39,00000
 318,27;   68,000;  367,000;    0,000;-299,00000
 318,29;  -61,000;  131,000;    0,000;-192,00000
 318,30;  -21,000; -147,000;    0,000;126,00000
 318,32;   24,000; -174,000;    0,000;198,00000
 318,34;   40,000;    4,000;    0,000;36,00000
 318,36;    1,000;  227,000;    0,000;-226,00000
 318,38;   46,000; -204,000;    0,000;250,00000
 318,40;   55,000;   74,000;    0,000;-19,00000
 318,42;   46,000;  179,000;    0,000;-133,00000
 318,44;   11,000;  136,000;    0,000;-125,00000
 318,46;  -81,000;  -66,000;    0,000;-15,00000
 318,48;  -20,000; -374,000;    0,000;354,00000
 318,50;  -64,000;   57,000;    0,000;-121,00000
 318,52;  188,000;  593,000;    0,000;-405,00000
 318,54;  188,000; -100,000;    0,000;288,00000
 318,55;  -33,000; -145,000;    0,000;112,00000
 318,57;  -36,000;  313,000;    0,000;-349,00000
 318,59;  137,000;   46,000;    0,000;91,00000
 318,61;   40,000;   -9,000;    0,000;49,00000
 318,63;   13,000; -112,000;    0,000;125,00000
 318,65;   12,000;  474,000;    0,000;-462,00000
 318,67;  -45,000;  -60,000;    0,000;15,00000
 318,69;   55,000;  -47,000;    0,000;102,00000
 318,71;   13,000; -103,000;    0,000;116,00000
 318,73;   29,000;  288,000;    0,000;-259,00000
 318,75;   63,000;  293,000;    0,000;-230,00000
 318,77;   94,000;  -56,000;    0,000;150,00000
 318,79;   57,000;  326,000;    0,000;-269,00000
 318,80;  -29,000;  303,000;    0,000;-332,00000
 318,82;   12,000;  384,000;    0,000;-372,00000
 318,84;   94,000; -193,000;    0,000;287,00000
 318,86;  126,000;  298,000;    0,000;-172,00000
 318,88;  -11,000;  149,000;    0,000;-160,00000
 318,90;   57,000;  357,000;    0,000;-300,00000
 318,92;  -10,000;   52,000;    0,000;-62,00000
 318,94;    4,000;  325,000;    0,000;-321,00000
 318,96;   17,000;   71,000;    0,000;-54,00000
 318,98;  -12,000;  322,000;    0,000;-334,00000
 319,00;   57,000;  -45,000;    0,000;102,00000
 319,02;  -38,000; -248,000;    0,000;210,00000
 319,03;   38,000;   23,000;    0,000;15,00000
 319,05;  -58,000;  -91,000;    0,000;33,00000
 319,07;  -44,000;  145,000;    0,000;-189,00000
 319,09;   24,000;  183,000;    0,000;-159,00000
 319,11;   23,000;  176,000;    0,000;-153,00000
 319,13;   -2,000;  409,000;    0,000;-411,00000
 319,15;  -45,000; -303,000;    0,000;258,00000
 319,17;   43,000;  -80,000;    0,000;123,00000
 319,19;  -66,000;   74,000;    0,000;-140,00000
 319,21;   43,000;  544,000;    0,000;-501,00000
 319,23;   45,000; -255,000;    0,000;300,00000
 319,25;   21,000; -174,000;    0,000;195,00000
 319,26;  -78,000;  152,000;    0,000;-230,00000
 319,28;   10,000;  189,000;    0,000;-179,00000
 319,30;   44,000; -340,000;    0,000;384,00000
 319,32;   52,000;  -70,000;    0,000;122,00000
 319,34;   33,000;  659,000;    0,000;-626,00000
 319,36;   54,000;  504,000;    0,000;-450,00000
 319,38;   93,000; -315,000;    0,000;408,00000
 319,40;   37,000;   60,000;    0,000;-23,00000
 319,42; -112,000;  -19,000;    0,000;-93,00000
 319,44;  -16,000;  291,000;    0,000;-307,00000
 319,46;   59,000;  220,000;    0,000;-161,00000
 319,47;   76,000;  258,000;    0,000;-182,00000
 319,49;  -17,000;   92,000;    0,000;-109,00000
 319,51;  -19,000;  240,000;    0,000;-259,00000
 319,53;  -16,000; -318,000;    0,000;302,00000
 319,55;   33,000; -140,000;    0,000;173,00000
 319,57;   58,000;  389,000;    0,000;-331,00000
 319,59;  -37,000;   62,000;    0,000;-99,00000
 319,61;  117,000; -164,000;    0,000;281,00000
 319,63;   23,000;   -7,000;    0,000;30,00000
 319,65;   35,000;  308,000;    0,000;-273,00000
 319,67;  -52,000;  266,000;    0,000;-318,00000
 319,68;   -4,000;   33,000;    0,000;-37,00000
 319,70;  -12,000;  120,000;    0,000;-132,00000
 319,72;   -8,000;   99,000;    0,000;-107,00000
 319,74;  -15,000;  -44,000;    0,000;29,00000
 319,76;   38,000;  -71,000;    0,000;109,00000
 319,78;   41,000;  158,000;    0,000;-117,00000
 319,80;   16,000;  150,000;    0,000;-134,00000
 319,82;  107,000;  855,000;    0,000;-748,00000
 319,84;   43,000;  -16,000;    0,000;59,00000
 319,86;   26,000;  110,000;    0,000;-84,00000
 319,88;   39,000;  297,000;    0,000;-258,00000
 319,89;  183,000;  435,000;    0,000;-252,00000
 319,91; -106,000; -288,000;    0,000;182,00000
 319,93;   49,000;  326,000;    0,000;-277,00000
 319,95; -111,000;  -39,000;    0,000;-72,00000
 319,97;  -71,000;  402,000;    0,000;-473,00000
 319,99;   34,000; -180,000;    0,000;214,00000
 320,01;   32,000; -154,000;    0,000;186,00000
 320,03;   17,000;   77,000;    0,000;-60,00000
 320,05;   18,000;  904,000;    0,000;-886,00000
 320,07;   93,000;   43,000;    0,000;50,00000
 320,08;   58,000;  276,000;    0,000;-218,00000
 320,10;  -10,000;  311,000;    0,000;-321,00000
 320,12;   -4,000;  142,000;    0,000;-146,00000
 320,14;   81,000;  -52,000;    0,000;133,00000
 320,16;  -34,000;  -79,000;    0,000;45,00000
 320,18;   71,000;    0,000;    0,000;71,00000
 320,20;   50,000;  389,000;    0,000;-339,00000
 320,22;   16,000; -173,000;    0,000;189,00000
 320,24;  186,000;  290,000;    0,000;-104,00000
 320,26;   47,000;  139,000;    0,000;-92,00000
 320,28;   77,000;   94,000;    0,000;-17,00000
 320,29;  -63,000;   45,000;    0,000;-108,00000
 320,31;  -13,000;   65,000;    0,000;-78,00000
 320,33;   -7,000;  299,000;    0,000;-306,00000
 320,35;   13,000;  667,000;    0,000;-654,00000
 320,37;   39,000;  -11,000;    0,000;50,00000
 320,39;   84,000;    4,000;    0,000;80,00000
 320,41;  -38,000;  103,000;    0,000;-141,00000
 320,43;  158,000;  367,000;    0,000;-209,00000
 320,45;  -31,000; -282,000;    0,000;251,00000
 320,46;  147,000; -234,000;    0,000;381,00000
 320,48;   24,000;  244,000;    0,000;-220,00000
 320,50;  -24,000;  109,000;    0,000;-133,00000
 320,52;   57,000;  -66,000;    0,000;123,00000
 320,54;   90,000;   93,000;    0,000;-3,00000
 320,56;   -6,000;  289,000;    0,000;-295,00000
 320,58;   23,000;  626,000;    0,000;-603,00000
 320,60;  -82,000;  -61,000;    0,000;-21,00000
 320,62;    0,000;    7,000;    0,000;-7,00000
 320,64;    7,000;  261,000;    0,000;-254,00000
 320,65; -102,000;   44,000;    0,000;-146,00000
 320,67;  -16,000; -359,000;    0,000;343,00000
 320,69;   38,000;  -67,000;    0,000;105,00000
 320,71;   42,000;  474,000;    0,000;-432,00000
 320,73;  -17,000;   38,000;    0,000;-55,00000
 320,75;  -31,000; -100,000;    0,000;69,00000
 320,77;   23,000; -286,000;    0,000;309,00000
 320,79;   61,000;  207,000;    0,000;-146,00000
 320,81;   70,000;  259,000;    0,000;-189,00000
 320,83;  -46,000;  151,000;    0,000;-197,00000
 320,84;   70,000;  370,000;    0,000;-300,00000
 320,86;  -52,000;  503,000;    0,000;-555,00000
 320,88;   14,000;  181,000;    0,000;-167,00000
 320,90;  -49,000;  -88,000;    0,000;39,00000
 320,92;  162,000;  225,000;    0,000;-63,00000
 320,94;   31,000;   97,000;    0,000;-66,00000
 320,96;  -71,000;   79,000;    0,000;-150,00000
 320,98;   79,000; -129,000;    0,000;208,00000
 321,00;   13,000;  -30,000;    0,000;43,00000
 321,01;  -15,000;  421,000;    0,000;-436,00000
 321,03; -131,000; -478,000;    0,000;347,00000
 321,05;  -43,000;  182,000;    0,000;-225,00000
 321,07;  -33,000; -161,000;    0,000;128,00000
 321,09;    9,000;  369,000;    0,000;-360,00000
 321,11; -114,000;  196,000;    0,000;-310,00000
 321,13;  -51,000; -277,000;    0,000;226,00000
 321,15;    0,000;   67,000;    0,000;-67,00000
 321,17;   22,000;  334,000;    0,000;-312,00000
 321,18;   -6,000;   62,000;    0,000;-68,00000
 321,20;  -37,000; -208,000;    0,000;171,00000
 321,22;  116,000;  249,000;    0,000;-133,00000
 321,24;  -20,000;  284,000;    0,000;-304,00000
 321,26;   36,000;  293,000;    0,000;-257,00000
 321,28;   47,000;  -97,000;    0,000;144,00000
 321,30;   31,000;  154,000;    0,000;-123,00000
 321,32;   64,000;  159,000;    0,000;-95,00000
 321,34;   37,000;  390,000;    0,000;-353,00000
 321,35;  -48,000; -281,000;    0,000;233,00000
 321,37;  -23,000;  209,000;    0,000;-232,00000
 321,39;   88,000;  -23,000;    0,000;111,00000
 321,41;  -55,000;  187,000;    0,000;-242,00000
 321,43;    5,000;  -99,000;    0,000;104,00000
 321,45;    5,000;  -47,000;    0,000;52,00000
 321,47;  133,000;  433,000;    0,000;-300,00000
 321,49;  -31,000;  298,000;    0,000;-329,00000
 321,51;  -91,000; -406,000;    0,000;315,00000
 321,52;  112,000;  264,000;    0,000;-152,00000
 321,54;   35,000;  139,000;    0,000;-104,00000
 321,56;   62,000;  190,000;    0,000;-128,00000
 321,58;   29,000; -277,000;    0,000;306,00000
 321,60;   64,000;   29,000;    0,000;35,00000
 321,62;  -82,000;  -20,000;    0,000;-62,00000
 321,64;   73,000;  449,000;    0,000;-376,00000
 321,66;  -25,000; -325,000;    0,000;300,00000
 321,67;   -8,000;  -85,000;    0,000;77,00000
 321,69;    2,000;   73,000;    0,000;-71,00000
 321,71;    0,000;  100,000;    0,000;-100,00000
 321,73;   37,000;  381,000;    0,000;-344,00000
 321,75;   -3,000;  709,000;    0,000;-712,00000
 321,77;   -2,000;  216,000;    0,000;-218,00000
 321,79;  -22,000;  242,000;    0,000;-264,00000
 321,81;  -28,000; -106,000;    0,000;78,00000
 321,83;   50,000;  -44,000;    0,000;94,00000
 321,84;    9,000;  211,000;    0,000;-202,00000
 321,86;   26,000;  568,000;    0,000;-542,00000
 321,88;   29,000;  269,000;    0,000;-240,00000
 321,90;  127,000;  263,000;    0,000;-136,00000
 321,92;  -15,000;  184,000;    0,000;-199,00000
 321,94;  -26,000; -151,000;    0,000;125,00000
 321,96;  -17,000; -188,000;    0,000;171,00000
 321,98;  -28,000;  118,000;    0,000;-146,00000
 321,99;   92,000;  166,000;    0,000;-74,00000
 322,01;  -48,000;  -50,000;    0,000; 2,00000
 322,03;   -3,000;  -57,000;    0,000;54,00000
 322,05;  -25,000; -122,000;    0,000;97,00000
 322,07;  -26,000;   97,000;    0,000;-123,00000
 322,09; -123,000; -235,000;    0,000;112,00000
 322,11;   78,000; -125,000;    0,000;203,00000
 322,13;   16,000;   51,000;    0,000;-35,00000
 322,14;   -8,000; -111,000;    0,000;103,00000
 322,16;  -56,000;  -24,000;    0,000;-32,00000
 322,18; -129,000; -455,000;    0,000;326,00000
 322,20;   72,000; -101,000;    0,000;173,00000
 322,22;  -16,000;  232,000;    0,000;-248,00000
 322,24;  -41,000;  546,000;    0,000;-587,00000
 322,26;  -34,000;   16,000;    0,000;-50,00000
 322,28;  -19,000;  -36,000;    0,000;17,00000
 322,29;   -6,000;  432,000;    0,000;-438,00000
 322,31;   33,000;  200,000;    0,000;-167,00000
 322,33;  142,000; -211,000;    0,000;353,00000
 322,35;   56,000;  256,000;    0,000;-200,00000
 322,37;   25,000;  232,000;    0,000;-207,00000
 322,39;  -34,000;   -4,000;    0,000;-30,00000
 322,41;  -33,000; -244,000;    0,000;211,00000
 322,43;   52,000; -216,000;    0,000;268,00000
 322,44;  -60,000; -272,000;    0,000;212,00000
 322,46;  -24,000; -134,000;    0,000;110,00000
 322,48;   39,000;  -30,000;    0,000;69,00000
 322,50;   47,000;   -2,000;    0,000;49,00000
 322,52;   24,000;  560,000;    0,000;-536,00000
 322,54;   45,000;  202,000;    0,000;-157,00000
 322,56;   92,000; -253,000;    0,000;345,00000
 322,58;   29,000;  -53,000;    0,000;82,00000
 322,59; -122,000; -279,000;    0,000;157,00000
 322,61;   -5,000;  742,000;    0,000;-747,00000
 322,63;   33,000;   13,000;    0,000;20,00000
 322,65;  111,000;  175,000;    0,000;-64,00000
 322,67;  -29,000;   60,000;    0,000;-89,00000
 322,69;  174,000;  422,000;    0,000;-248,00000
 322,71;    0,000;  -73,000;    0,000;73,00000
 322,73;   -8,000;    6,000;    0,000;-14,00000
 322,74;  126,000;  360,000;    0,000;-234,00000
 322,76;   25,000;  186,000;    0,000;-161,00000
 322,78;    5,000; -131,000;    0,000;136,00000
 322,80;  111,000;   25,000;    0,000;86,00000
 322,82;   42,000;  429,000;    0,000;-387,00000
 322,84;   86,000;  578,000;    0,000;-492,00000
 322,86;   27,000;  109,000;    0,000;-82,00000
 322,87;   24,000;  -20,000;    0,000;44,00000
 322,89;  -82,000;  -41,000;    0,000;-41,00000
 322,91;  -28,000;  192,000;    0,000;-220,00000
 322,93;   61,000; -129,000;    0,000;190,00000
 322,95;   81,000;  878,000;    0,000;-797,00000
 322,97;   42,000;  216,000;    0,000;-174,00000
 322,99;  -38,000;  221,000;    0,000;-259,00000
 323,01;  -66,000;  -10,000;    0,000;-56,00000
 323,02;  -20,000;  121,000;    0,000;-141,00000
 323,04;  -35,000;  321,000;    0,000;-356,00000
 323,06;   26,000;  322,000;    0,000;-296,00000
 323,08;  117,000;  -17,000;    0,000;134,00000
 323,10;  -32,000; -109,000;    0,000;77,00000
 323,12;   94,000;  423,000;    0,000;-329,00000
 323,14;   72,000;  400,000;    0,000;-328,00000
 323,15;  -15,000; -145,000;    0,000;130,00000
 323,17;   66,000;  249,000;    0,000;-183,00000
 323,19;  -16,000;  154,000;    0,000;-170,00000
 323,21;  -78,000; -373,000;    0,000;295,00000
 323,23;  -22,000; -454,000;    0,000;432,00000
 323,25;   24,000; -173,000;    0,000;197,00000
 323,27;   45,000;  359,000;    0,000;-314,00000
 323,29;  -75,000;  285,000;    0,000;-360,00000
 323,30;   -7,000; -124,000;    0,000;117,00000
 323,32;   28,000;  161,000;    0,000;-133,00000
 323,34;  -84,000;  210,000;    0,000;-294,00000
 323,36;  -12,000;  273,000;    0,000;-285,00000
 323,38;   11,000;   21,000;    0,000;-10,00000
 323,40;  136,000;  130,000;    0,000; 6,00000
 323,42;  -90,000;  305,000;    0,000;-395,00000
 323,43;    1,000;  295,000;    0,000;-294,00000
 323,45;   14,000; -205,000;    0,000;219,00000
 323,47;   -5,000;  298,000;    0,000;-303,00000
 323,49;   48,000;    1,000;    0,000;47,00000
 323,51;   94,000;  458,000;    0,000;-364,00000
 323,53;  -71,000; -120,000;    0,000;49,00000
 323,55;   10,000;   39,000;    0,000;-29,00000
 323,56;  -28,000;  -13,000;    0,000;-15,00000
 323,58; -125,000; -262,000;    0,000;137,00000
 323,60;   69,000;    3,000;    0,000;66,00000
 323,62;   56,000;  128,000;    0,000;-72,00000
 323,64;  -23,000;  648,000;    0,000;-671,00000
 323,66;   23,000;  483,000;    0,000;-460,00000
 323,68;   22,000; -285,000;    0,000;307,00000
 323,69;   48,000;   93,000;    0,000;-45,00000
 323,71;  -12,000;  560,000;    0,000;-572,00000
 323,73;  -50,000;  182,000;    0,000;-232,00000
 323,75;  -12,000; -220,000;    0,000;208,00000
 323,77;   10,000;   75,000;    0,000;-65,00000
 323,79;   30,000;  127,000;    0,000;-97,00000
 323,81;   55,000;  638,000;    0,000;-583,00000
 323,82;  175,000; -209,000;    0,000;384,00000
 323,84;   77,000;   90,000;    0,000;-13,00000
 323,86;  143,000;  516,000;    0,000;-373,00000
 323,88;   -2,000;  383,000;    0,000;-385,00000
 323,90;    8,000; -295,000;    0,000;303,00000
 323,92;   63,000;  401,000;    0,000;-338,00000
 323,94;   35,000;  -45,000;    0,000;80,00000
 323,95;   21,000;   46,000;    0,000;-25,00000
 323,97;   15,000;  116,000;    0,000;-101,00000
 323,99;  105,000;   32,000;    0,000;73,00000
 324,01;  -14,000; -225,000;    0,000;211,00000
 324,03;  103,000;  367,000;    0,000;-264,00000
 324,05;  139,000;  -85,000;    0,000;224,00000
 324,06;   69,000;  264,000;    0,000;-195,00000
 324,08;  -13,000;  402,000;    0,000;-415,00000
 324,10;  -46,000;   71,000;    0,000;-117,00000
 324,12;   14,000;  144,000;    0,000;-130,00000
 324,14;   75,000;   65,000;    0,000;10,00000
 324,16;   21,000;  162,000;    0,000;-141,00000
 324,18;  -43,000;  -23,000;    0,000;-20,00000
 324,19;  133,000;  256,000;    0,000;-123,00000
 324,21;    8,000;  100,000;    0,000;-92,00000
 324,23;    4,000; -193,000;    0,000;197,00000
 324,25;  -44,000;   17,000;    0,000;-61,00000
 324,27;  -15,000; -361,000;    0,000;346,00000
 324,29;   30,000;    4,000;    0,000;26,00000
 324,31;   32,000;  258,000;    0,000;-226,00000
 324,32;  119,000;  487,000;    0,000;-368,00000
 324,34;  112,000; -237,000;    0,000;349,00000
 324,36;   -2,000;   63,000;    0,000;-65,00000
 324,38;   -3,000;  158,000;    0,000;-161,00000
 324,40;  105,000;  423,000;    0,000;-318,00000
 324,42;  -90,000; -304,000;    0,000;214,00000
 324,43;  147,000;  265,000;    0,000;-118,00000
 324,45;   11,000;  354,000;    0,000;-343,00000
 324,47;   76,000;  423,000;    0,000;-347,00000
 324,49;  -23,000;  162,000;    0,000;-185,00000
 324,51;   -2,000; -168,000;    0,000;166,00000
 324,53;   38,000;  385,000;    0,000;-347,00000
 324,55;  147,000;  337,000;    0,000;-190,00000
 324,56;   74,000;  -58,000;    0,000;132,00000
 324,58;  204,000;  195,000;    0,000; 9,00000
 324,60;   71,000;  442,000;    0,000;-371,00000
 324,62;  150,000;  504,000;    0,000;-354,00000
 324,64;   92,000;  149,000;    0,000;-57,00000
 324,66;  190,000;  311,000;    0,000;-121,00000
 324,67;   88,000;   30,000;    0,000;58,00000
 324,69;   17,000;  299,000;    0,000;-282,00000
 324,71;   21,000; -148,000;    0,000;169,00000
 324,73;  105,000;  -80,000;    0,000;185,00000
 324,75;  183,000;  342,000;    0,000;-159,00000
 324,77;  181,000;  495,000;    0,000;-314,00000
 324,79;   55,000;   50,000;    0,000; 5,00000
 324,80;  150,000;   72,000;    0,000;78,00000
 324,82;    9,000; -228,000;    0,000;237,00000
 324,84;   89,000;  273,000;    0,000;-184,00000
 324,86;   55,000; -162,000;    0,000;217,00000
 324,88;  149,000;   21,000;    0,000;128,00000
 324,90;  143,000;  152,000;    0,000;-9,00000
 324,91;   78,000;  100,000;    0,000;-22,00000
 324,93;  223,000;  257,000;    0,000;-34,00000
 324,95;  193,000; -103,000;    0,000;296,00000
 324,97;  125,000;  -85,000;    0,000;210,00000
 324,99;   81,000;   66,000;    0,000;15,00000
 325,01;  185,000; -104,000;    0,000;289,00000
 325,02;  295,000;  336,000;    0,000;-41,00000
 325,04;   89,000;  -39,000;    0,000;128,00000
 325,06;  142,000;  219,000;    0,000;-77,00000
 325,08;  139,000; -149,000;    0,000;288,00000
 325,10;  222,000;  -42,000;    0,000;264,00000
 325,12;  298,000; -220,000;    0,000;518,00000
 325,13;  362,000;  332,000;    0,000;30,00000
 325,15;  575,000;  -46,000;    0,000;621,00000
 325,17;  707,000;  117,000;    0,000;590,00000
 325,19; 1307,000;  447,000;    0,000;860,00000
 325,21; 1734,000;  316,000;    0,000;1418,00000
 325,23; 2101,000; -152,000;    0,000;2253,00000
 325,25; 1489,000; -139,000;    0,000;1628,00000
 325,26;  832,000;  243,000;    0,000;589,00000
 325,28;  359,000;  407,000;    0,000;-48,00000
 325,30;  255,000;  -26,000;    0,000;281,00000
 325,32;  198,000;  164,000;    0,000;34,00000
 325,34;  147,000;  335,000;    0,000;-188,00000
 325,36;  125,000;  215,000;    0,000;-90,00000
 325,37;   30,000;    6,000;    0,000;24,00000
 325,39;   57,000;   83,000;    0,000;-26,00000
 325,41;  145,000;  206,000;    0,000;-61,00000
 325,43;   29,000;   91,000;    0,000;-62,00000
 325,45;  177,000; -146,000;    0,000;323,00000
